# Output of JWST_backgrounds version 1.3.0
# background cache version 1.2

# for RA=223.555, DEC=-54.395 On calendar day 171
# Columns: 
# - Wavelength [micron] 
# - Total background (MJy/sr)
# - In-field zodiacal light (MJy/sr)
# - In-field galactic light (MJy/sr)
# - Stray light (MJy/sr)
# - Thermal self-emission (MJy/sr)
0.500000    0.2402    0.1723    0.0401    0.0278    0.0000
0.600000    0.3471    0.2277    0.0579    0.0615    0.0000
0.700000    0.3865    0.2556    0.0663    0.0645    0.0000
0.800000    0.4061    0.2639    0.0747    0.0675    0.0000
0.900000    0.4006    0.2592    0.0728    0.0686    0.0000
1.000000    0.4625    0.2469    0.0712    0.1444    0.0000
1.100000    0.4383    0.2306    0.0667    0.1410    0.0000
1.200000    0.4131    0.2127    0.0629    0.1376    0.0000
1.300000    0.3943    0.1983    0.0614    0.1347    0.0000
1.400000    0.3817    0.1876    0.0617    0.1323    0.0000
1.500000    0.3691    0.1770    0.0620    0.1300    0.0000
1.600000    0.3568    0.1668    0.0623    0.1277    0.0000
1.700000    0.3451    0.1571    0.0626    0.1255    0.0000
1.800000    0.3493    0.1480    0.0628    0.1385    0.0000
1.900000    0.3388    0.1394    0.0630    0.1364    0.0000
2.000000    0.3290    0.1315    0.0631    0.1344    0.0000
2.100000    0.3209    0.1241    0.0632    0.1336    0.0000
2.200000    0.3133    0.1173    0.0633    0.1328    0.0000
2.300000    0.3085    0.1096    0.0667    0.1321    0.0000
2.400000    0.3044    0.1026    0.0702    0.1316    0.0000
2.500000    0.3008    0.0961    0.0736    0.1310    0.0000
2.600000    0.2979    0.0902    0.0770    0.1305    0.0001
2.700000    0.2955    0.0847    0.0805    0.1301    0.0001
2.800000    0.2936    0.0797    0.0841    0.1297    0.0002
2.900000    0.2584    0.0750    0.0876    0.0954    0.0004
3.000000    0.2576    0.0707    0.0912    0.0951    0.0006
3.100000    0.2584    0.0666    0.0948    0.0959    0.0010
3.200000    0.2863    0.0629    0.1232    0.0987    0.0015
3.300000    0.4021    0.0595    0.2325    0.1078    0.0023
3.400000    0.2669    0.0563    0.1085    0.0988    0.0033
3.500000    0.2802    0.0650    0.1095    0.1009    0.0047
3.700000    0.3017    0.0712    0.1176    0.1042    0.0088
4.000000    0.3544    0.0942    0.1301    0.1104    0.0196
4.250000    0.3939    0.1307    0.1406    0.0876    0.0350
4.500000    0.4916    0.1870    0.1516    0.0955    0.0575
4.750000    0.6233    0.2659    0.1627    0.1053    0.0894
5.000000    0.7945    0.3689    0.1772    0.1171    0.1314
5.100000    0.8848    0.4261    0.1850    0.1223    0.1514
5.200000    0.9793    0.4901    0.1882    0.1276    0.1734
5.300000    1.2054    0.5611    0.3031    0.1438    0.1974
5.400000    1.2263    0.6395    0.2210    0.1425    0.2234
5.500000    1.3994    0.7254    0.2688    0.1537    0.2515
5.700000    2.0130    0.9210    0.5810    0.1972    0.3138
5.900000    2.3230    1.1492    0.5748    0.2146    0.3844
6.100000    3.5603    1.4110    1.4046    0.2815    0.4633
6.300000    5.9080    1.7065    3.1928    0.4584    0.5503
6.500000    4.5216    2.0355    1.5028    0.3382    0.6451
6.700000    4.8262    2.3973    1.3296    0.3518    0.7475
6.900000    5.6018    2.7906    1.5530    0.4013    0.8569
7.100000    6.3634    3.2138    1.7276    0.4488    0.9732
7.300000    7.7692    3.6649    2.4646    0.5436    1.0960
7.500000    10.1912    4.1417    4.1131    0.7114    1.2250
7.700000    11.9792    4.6417    5.1490    0.8294    1.3590
7.900000    11.6642    5.1622    4.2077    0.7943    1.5000
8.100000    11.0313    5.7006    2.9471    0.7386    1.6450
8.300000    11.4543    6.2541    2.6443    0.7590    1.7970
8.500000    12.5331    6.8197    2.9344    0.8250    1.9540
8.700000    13.1046    7.3949    2.7368    0.8559    2.1170
8.900000    12.7777    7.9769    1.6878    0.8270    2.2860
9.100000    13.2870    8.5630    1.4058    0.8552    2.4630
9.300000    13.9729    9.1509    1.2789    0.8951    2.6480
9.500000    14.7602    9.7380    1.2386    0.9415    2.8420
9.700000    15.7008    10.3223    1.3522    0.9803    3.0460
9.900000    16.6198    10.9015    1.4211    1.0341    3.2630
10.100000    17.3968    11.4738    1.3529    1.0770    3.4930
10.300000    18.1909    12.0375    1.2969    1.1184    3.7380
10.500000    19.2655    12.5909    1.4970    1.1756    4.0020
10.700000    20.2997    13.1327    1.6513    1.2287    4.2870
10.900000    21.5008    13.6614    1.9540    1.2904    4.5950
11.100000    23.7061    14.1760    3.1892    1.4118    4.9290
11.300000    26.5420    14.6756    5.0036    1.5698    5.2930
11.500000    26.6667    15.1591    4.2578    1.5588    5.6910
11.700000    25.9347    15.6260    2.6900    1.4927    6.1260
11.900000    26.7294    16.0756    2.5333    1.5174    6.6030
12.100000    27.9003    16.5679    2.6541    1.5533    7.1250
12.300000    29.2381    17.1081    2.8241    1.6069    7.6990
12.500000    30.5745    17.6369    2.9527    1.6568    8.3280
12.700000    31.9283    18.1540    3.0525    1.7038    9.0180
12.900000    32.9240    18.6589    2.7666    1.7246    9.7740
13.100000    33.7313    19.1512    2.2509    1.7292    10.6000
13.300000    34.8953    19.6307    2.0042    1.7504    11.5100
13.500000    36.4014    20.0972    2.0074    1.7869    12.5100
13.700000    37.8625    20.5504    1.9067    1.8154    13.5900
13.900000    39.3278    20.9902    1.7203    1.8373    14.7800
14.100000    41.1000    21.4166    1.7418    1.8716    16.0700
14.300000    42.8792    21.8295    1.6708    1.8988    17.4800
14.500000    44.7555    22.2290    1.5827    1.9238    19.0200
14.700000    46.6967    22.6149    1.4565    1.9452    20.6800
14.900000    48.8706    22.9876    1.4121    1.9709    22.5000
15.100000    51.2031    23.3469    1.3892    1.9970    24.4700
15.300000    53.6337    23.6930    1.3217    2.0190    26.6000
15.500000    56.5136    24.0262    1.5200    2.0574    28.9100
16.500000    72.8842    25.5028    1.5968    2.1746    43.6100
17.500000    95.6753    26.6841    1.6729    2.2683    65.0500
18.500000    127.5196    27.6006    1.7477    2.3413    95.8300
19.500000    171.9025    28.2845    1.8219    2.3961    139.4000
20.500000    232.9977    28.7670    1.8955    2.4352    199.9000
21.500000    316.1067    29.0773    1.9683    2.4611    282.6000
22.500000    427.2578    29.2417    2.0404    2.4756    393.5000
23.500000    573.1764    29.2836    2.1119    2.4808    539.3000
24.500000    761.1846    29.2235    2.1829    2.4782    727.3000
25.500000    998.6524    28.8235    2.2785    2.4504    965.1000
26.500000    1293.9111    28.1111    2.4003    2.3997    1261.0000
27.500000    1654.2311    27.3609    2.5238    2.3464    1622.0000
28.500000    2087.5262    26.5857    2.6490    2.2915    2056.0000
29.500000    2600.8075    25.7959    2.7759    2.2358    2570.0000
30.500000    3202.0840    24.9998    2.9044    2.1798    3172.0000
31.000000    3536.7227    24.6015    2.9692    2.1519    3507.0000
